# E (eV)   ldos(E)   pdos(E)   
  -5.150  0.168E-07  0.168E-07
  -5.140  0.187E-07  0.187E-07
  -5.130  0.209E-07  0.209E-07
  -5.120  0.233E-07  0.233E-07
  -5.110  0.260E-07  0.260E-07
  -5.100  0.289E-07  0.289E-07
  -5.090  0.322E-07  0.322E-07
  -5.080  0.358E-07  0.358E-07
  -5.070  0.399E-07  0.399E-07
  -5.060  0.443E-07  0.443E-07
  -5.050  0.493E-07  0.493E-07
  -5.040  0.547E-07  0.547E-07
  -5.030  0.608E-07  0.608E-07
  -5.020  0.675E-07  0.675E-07
  -5.010  0.749E-07  0.749E-07
  -5.000  0.831E-07  0.831E-07
  -4.990  0.921E-07  0.921E-07
  -4.980  0.102E-06  0.102E-06
  -4.970  0.113E-06  0.113E-06
  -4.960  0.125E-06  0.125E-06
  -4.950  0.139E-06  0.139E-06
  -4.940  0.153E-06  0.153E-06
  -4.930  0.170E-06  0.170E-06
  -4.920  0.188E-06  0.188E-06
  -4.910  0.207E-06  0.207E-06
  -4.900  0.229E-06  0.229E-06
  -4.890  0.253E-06  0.253E-06
  -4.880  0.279E-06  0.279E-06
  -4.870  0.308E-06  0.308E-06
  -4.860  0.339E-06  0.339E-06
  -4.850  0.374E-06  0.374E-06
  -4.840  0.412E-06  0.412E-06
  -4.830  0.454E-06  0.454E-06
  -4.820  0.500E-06  0.500E-06
  -4.810  0.550E-06  0.550E-06
  -4.800  0.605E-06  0.605E-06
  -4.790  0.665E-06  0.665E-06
  -4.780  0.731E-06  0.731E-06
  -4.770  0.803E-06  0.803E-06
  -4.760  0.881E-06  0.881E-06
  -4.750  0.967E-06  0.967E-06
  -4.740  0.106E-05  0.106E-05
  -4.730  0.116E-05  0.116E-05
  -4.720  0.128E-05  0.128E-05
  -4.710  0.140E-05  0.140E-05
  -4.700  0.153E-05  0.153E-05
  -4.690  0.168E-05  0.168E-05
  -4.680  0.183E-05  0.183E-05
  -4.670  0.201E-05  0.201E-05
  -4.660  0.219E-05  0.219E-05
  -4.650  0.240E-05  0.240E-05
  -4.640  0.262E-05  0.262E-05
  -4.630  0.286E-05  0.286E-05
  -4.620  0.312E-05  0.312E-05
  -4.610  0.341E-05  0.341E-05
  -4.600  0.372E-05  0.372E-05
  -4.590  0.405E-05  0.405E-05
  -4.580  0.442E-05  0.442E-05
  -4.570  0.481E-05  0.481E-05
  -4.560  0.524E-05  0.524E-05
  -4.550  0.570E-05  0.570E-05
  -4.540  0.621E-05  0.621E-05
  -4.530  0.675E-05  0.675E-05
  -4.520  0.734E-05  0.734E-05
  -4.510  0.797E-05  0.797E-05
  -4.500  0.866E-05  0.866E-05
  -4.490  0.940E-05  0.940E-05
  -4.480  0.102E-04  0.102E-04
  -4.470  0.111E-04  0.111E-04
  -4.460  0.120E-04  0.120E-04
  -4.450  0.130E-04  0.130E-04
  -4.440  0.141E-04  0.141E-04
  -4.430  0.153E-04  0.153E-04
  -4.420  0.165E-04  0.165E-04
  -4.410  0.179E-04  0.179E-04
  -4.400  0.193E-04  0.193E-04
  -4.390  0.209E-04  0.209E-04
  -4.380  0.226E-04  0.226E-04
  -4.370  0.244E-04  0.244E-04
  -4.360  0.263E-04  0.263E-04
  -4.350  0.284E-04  0.284E-04
  -4.340  0.307E-04  0.307E-04
  -4.330  0.331E-04  0.331E-04
  -4.320  0.357E-04  0.357E-04
  -4.310  0.384E-04  0.384E-04
  -4.300  0.414E-04  0.414E-04
  -4.290  0.446E-04  0.446E-04
  -4.280  0.480E-04  0.480E-04
  -4.270  0.516E-04  0.516E-04
  -4.260  0.555E-04  0.555E-04
  -4.250  0.597E-04  0.597E-04
  -4.240  0.641E-04  0.641E-04
  -4.230  0.688E-04  0.688E-04
  -4.220  0.739E-04  0.739E-04
  -4.210  0.793E-04  0.793E-04
  -4.200  0.851E-04  0.851E-04
  -4.190  0.912E-04  0.912E-04
  -4.180  0.978E-04  0.978E-04
  -4.170  0.105E-03  0.105E-03
  -4.160  0.112E-03  0.112E-03
  -4.150  0.120E-03  0.120E-03
  -4.140  0.128E-03  0.128E-03
  -4.130  0.137E-03  0.137E-03
  -4.120  0.147E-03  0.147E-03
  -4.110  0.157E-03  0.157E-03
  -4.100  0.168E-03  0.168E-03
  -4.090  0.179E-03  0.179E-03
  -4.080  0.191E-03  0.191E-03
  -4.070  0.204E-03  0.204E-03
  -4.060  0.218E-03  0.218E-03
  -4.050  0.232E-03  0.232E-03
  -4.040  0.247E-03  0.247E-03
  -4.030  0.263E-03  0.263E-03
  -4.020  0.280E-03  0.280E-03
  -4.010  0.298E-03  0.298E-03
  -4.000  0.317E-03  0.317E-03
  -3.990  0.337E-03  0.337E-03
  -3.980  0.359E-03  0.359E-03
  -3.970  0.381E-03  0.381E-03
  -3.960  0.405E-03  0.405E-03
  -3.950  0.430E-03  0.430E-03
  -3.940  0.456E-03  0.456E-03
  -3.930  0.484E-03  0.484E-03
  -3.920  0.513E-03  0.513E-03
  -3.910  0.544E-03  0.544E-03
  -3.900  0.576E-03  0.576E-03
  -3.890  0.610E-03  0.610E-03
  -3.880  0.646E-03  0.646E-03
  -3.870  0.684E-03  0.684E-03
  -3.860  0.723E-03  0.723E-03
  -3.850  0.765E-03  0.765E-03
  -3.840  0.809E-03  0.809E-03
  -3.830  0.854E-03  0.854E-03
  -3.820  0.902E-03  0.902E-03
  -3.810  0.952E-03  0.952E-03
  -3.800  0.101E-02  0.101E-02
  -3.790  0.106E-02  0.106E-02
  -3.780  0.112E-02  0.112E-02
  -3.770  0.118E-02  0.118E-02
  -3.760  0.124E-02  0.124E-02
  -3.750  0.131E-02  0.131E-02
  -3.740  0.138E-02  0.138E-02
  -3.730  0.145E-02  0.145E-02
  -3.720  0.152E-02  0.152E-02
  -3.710  0.160E-02  0.160E-02
  -3.700  0.168E-02  0.168E-02
  -3.690  0.177E-02  0.177E-02
  -3.680  0.186E-02  0.186E-02
  -3.670  0.195E-02  0.195E-02
  -3.660  0.205E-02  0.205E-02
  -3.650  0.215E-02  0.215E-02
  -3.640  0.225E-02  0.225E-02
  -3.630  0.236E-02  0.236E-02
  -3.620  0.247E-02  0.247E-02
  -3.610  0.259E-02  0.259E-02
  -3.600  0.271E-02  0.271E-02
  -3.590  0.284E-02  0.284E-02
  -3.580  0.297E-02  0.297E-02
  -3.570  0.310E-02  0.310E-02
  -3.560  0.324E-02  0.324E-02
  -3.550  0.339E-02  0.339E-02
  -3.540  0.354E-02  0.354E-02
  -3.530  0.369E-02  0.369E-02
  -3.520  0.386E-02  0.386E-02
  -3.510  0.402E-02  0.402E-02
  -3.500  0.419E-02  0.419E-02
  -3.490  0.437E-02  0.437E-02
  -3.480  0.456E-02  0.456E-02
  -3.470  0.474E-02  0.474E-02
  -3.460  0.494E-02  0.494E-02
  -3.450  0.514E-02  0.514E-02
  -3.440  0.535E-02  0.535E-02
  -3.430  0.556E-02  0.556E-02
  -3.420  0.578E-02  0.578E-02
  -3.410  0.601E-02  0.601E-02
  -3.400  0.624E-02  0.624E-02
  -3.390  0.648E-02  0.648E-02
  -3.380  0.673E-02  0.673E-02
  -3.370  0.698E-02  0.698E-02
  -3.360  0.724E-02  0.724E-02
  -3.350  0.751E-02  0.751E-02
  -3.340  0.778E-02  0.778E-02
  -3.330  0.806E-02  0.806E-02
  -3.320  0.835E-02  0.835E-02
  -3.310  0.864E-02  0.864E-02
  -3.300  0.894E-02  0.894E-02
  -3.290  0.925E-02  0.925E-02
  -3.280  0.957E-02  0.957E-02
  -3.270  0.989E-02  0.989E-02
  -3.260  0.102E-01  0.102E-01
  -3.250  0.106E-01  0.106E-01
  -3.240  0.109E-01  0.109E-01
  -3.230  0.112E-01  0.112E-01
  -3.220  0.116E-01  0.116E-01
  -3.210  0.120E-01  0.120E-01
  -3.200  0.123E-01  0.123E-01
  -3.190  0.127E-01  0.127E-01
  -3.180  0.131E-01  0.131E-01
  -3.170  0.135E-01  0.135E-01
  -3.160  0.139E-01  0.139E-01
  -3.150  0.143E-01  0.143E-01
  -3.140  0.147E-01  0.147E-01
  -3.130  0.151E-01  0.151E-01
  -3.120  0.156E-01  0.156E-01
  -3.110  0.160E-01  0.160E-01
  -3.100  0.164E-01  0.164E-01
  -3.090  0.169E-01  0.169E-01
  -3.080  0.173E-01  0.173E-01
  -3.070  0.178E-01  0.178E-01
  -3.060  0.182E-01  0.182E-01
  -3.050  0.187E-01  0.187E-01
  -3.040  0.192E-01  0.192E-01
  -3.030  0.196E-01  0.196E-01
  -3.020  0.201E-01  0.201E-01
  -3.010  0.206E-01  0.206E-01
  -3.000  0.211E-01  0.211E-01
  -2.990  0.216E-01  0.216E-01
  -2.980  0.221E-01  0.221E-01
  -2.970  0.226E-01  0.226E-01
  -2.960  0.231E-01  0.231E-01
  -2.950  0.236E-01  0.236E-01
  -2.940  0.241E-01  0.241E-01
  -2.930  0.246E-01  0.246E-01
  -2.920  0.251E-01  0.251E-01
  -2.910  0.256E-01  0.256E-01
  -2.900  0.262E-01  0.262E-01
  -2.890  0.267E-01  0.267E-01
  -2.880  0.272E-01  0.272E-01
  -2.870  0.277E-01  0.277E-01
  -2.860  0.283E-01  0.283E-01
  -2.850  0.288E-01  0.288E-01
  -2.840  0.293E-01  0.293E-01
  -2.830  0.298E-01  0.298E-01
  -2.820  0.304E-01  0.304E-01
  -2.810  0.309E-01  0.309E-01
  -2.800  0.314E-01  0.314E-01
  -2.790  0.319E-01  0.319E-01
  -2.780  0.325E-01  0.325E-01
  -2.770  0.330E-01  0.330E-01
  -2.760  0.335E-01  0.335E-01
  -2.750  0.340E-01  0.340E-01
  -2.740  0.345E-01  0.345E-01
  -2.730  0.351E-01  0.351E-01
  -2.720  0.356E-01  0.356E-01
  -2.710  0.361E-01  0.361E-01
  -2.700  0.366E-01  0.366E-01
  -2.690  0.371E-01  0.371E-01
  -2.680  0.376E-01  0.376E-01
  -2.670  0.381E-01  0.381E-01
  -2.660  0.386E-01  0.386E-01
  -2.650  0.391E-01  0.391E-01
  -2.640  0.395E-01  0.395E-01
  -2.630  0.400E-01  0.400E-01
  -2.620  0.405E-01  0.405E-01
  -2.610  0.409E-01  0.409E-01
  -2.600  0.414E-01  0.414E-01
  -2.590  0.419E-01  0.419E-01
  -2.580  0.423E-01  0.423E-01
  -2.570  0.427E-01  0.427E-01
  -2.560  0.432E-01  0.432E-01
  -2.550  0.436E-01  0.436E-01
  -2.540  0.440E-01  0.440E-01
  -2.530  0.444E-01  0.444E-01
  -2.520  0.449E-01  0.449E-01
  -2.510  0.453E-01  0.453E-01
  -2.500  0.456E-01  0.456E-01
  -2.490  0.460E-01  0.460E-01
  -2.480  0.464E-01  0.464E-01
  -2.470  0.468E-01  0.468E-01
  -2.460  0.471E-01  0.471E-01
  -2.450  0.475E-01  0.475E-01
  -2.440  0.479E-01  0.479E-01
  -2.430  0.482E-01  0.482E-01
  -2.420  0.485E-01  0.485E-01
  -2.410  0.488E-01  0.488E-01
  -2.400  0.492E-01  0.492E-01
  -2.390  0.495E-01  0.495E-01
  -2.380  0.498E-01  0.498E-01
  -2.370  0.501E-01  0.501E-01
  -2.360  0.503E-01  0.503E-01
  -2.350  0.506E-01  0.506E-01
  -2.340  0.509E-01  0.509E-01
  -2.330  0.512E-01  0.512E-01
  -2.320  0.514E-01  0.514E-01
  -2.310  0.516E-01  0.516E-01
  -2.300  0.519E-01  0.519E-01
  -2.290  0.521E-01  0.521E-01
  -2.280  0.523E-01  0.523E-01
  -2.270  0.525E-01  0.525E-01
  -2.260  0.528E-01  0.528E-01
  -2.250  0.530E-01  0.530E-01
  -2.240  0.531E-01  0.531E-01
  -2.230  0.533E-01  0.533E-01
  -2.220  0.535E-01  0.535E-01
  -2.210  0.537E-01  0.537E-01
  -2.200  0.538E-01  0.538E-01
  -2.190  0.540E-01  0.540E-01
  -2.180  0.541E-01  0.541E-01
  -2.170  0.543E-01  0.543E-01
  -2.160  0.544E-01  0.544E-01
  -2.150  0.546E-01  0.546E-01
  -2.140  0.547E-01  0.547E-01
  -2.130  0.548E-01  0.548E-01
  -2.120  0.549E-01  0.549E-01
  -2.110  0.550E-01  0.550E-01
  -2.100  0.551E-01  0.551E-01
  -2.090  0.552E-01  0.552E-01
  -2.080  0.553E-01  0.553E-01
  -2.070  0.554E-01  0.554E-01
  -2.060  0.555E-01  0.555E-01
  -2.050  0.556E-01  0.556E-01
  -2.040  0.556E-01  0.556E-01
  -2.030  0.557E-01  0.557E-01
  -2.020  0.558E-01  0.558E-01
  -2.010  0.558E-01  0.558E-01
  -2.000  0.559E-01  0.559E-01
  -1.990  0.559E-01  0.559E-01
  -1.980  0.560E-01  0.560E-01
  -1.970  0.560E-01  0.560E-01
  -1.960  0.561E-01  0.561E-01
  -1.950  0.561E-01  0.561E-01
  -1.940  0.561E-01  0.561E-01
  -1.930  0.562E-01  0.562E-01
  -1.920  0.562E-01  0.562E-01
  -1.910  0.562E-01  0.562E-01
  -1.900  0.562E-01  0.562E-01
  -1.890  0.563E-01  0.563E-01
  -1.880  0.563E-01  0.563E-01
  -1.870  0.563E-01  0.563E-01
  -1.860  0.563E-01  0.563E-01
  -1.850  0.563E-01  0.563E-01
  -1.840  0.563E-01  0.563E-01
  -1.830  0.564E-01  0.564E-01
  -1.820  0.564E-01  0.564E-01
  -1.810  0.564E-01  0.564E-01
  -1.800  0.564E-01  0.564E-01
  -1.790  0.564E-01  0.564E-01
  -1.780  0.564E-01  0.564E-01
  -1.770  0.564E-01  0.564E-01
  -1.760  0.564E-01  0.564E-01
  -1.750  0.564E-01  0.564E-01
  -1.740  0.564E-01  0.564E-01
  -1.730  0.564E-01  0.564E-01
  -1.720  0.564E-01  0.564E-01
  -1.710  0.564E-01  0.564E-01
  -1.700  0.564E-01  0.564E-01
  -1.690  0.564E-01  0.564E-01
  -1.680  0.564E-01  0.564E-01
  -1.670  0.564E-01  0.564E-01
  -1.660  0.564E-01  0.564E-01
  -1.650  0.564E-01  0.564E-01
  -1.640  0.564E-01  0.564E-01
  -1.630  0.564E-01  0.564E-01
  -1.620  0.564E-01  0.564E-01
  -1.610  0.564E-01  0.564E-01
  -1.600  0.564E-01  0.564E-01
  -1.590  0.564E-01  0.564E-01
  -1.580  0.564E-01  0.564E-01
  -1.570  0.564E-01  0.564E-01
  -1.560  0.564E-01  0.564E-01
  -1.550  0.565E-01  0.565E-01
  -1.540  0.565E-01  0.565E-01
  -1.530  0.565E-01  0.565E-01
  -1.520  0.565E-01  0.565E-01
  -1.510  0.565E-01  0.565E-01
  -1.500  0.565E-01  0.565E-01
  -1.490  0.565E-01  0.565E-01
  -1.480  0.565E-01  0.565E-01
  -1.470  0.565E-01  0.565E-01
  -1.460  0.565E-01  0.565E-01
  -1.450  0.565E-01  0.565E-01
  -1.440  0.565E-01  0.565E-01
  -1.430  0.566E-01  0.566E-01
  -1.420  0.566E-01  0.566E-01
  -1.410  0.566E-01  0.566E-01
  -1.400  0.566E-01  0.566E-01
  -1.390  0.566E-01  0.566E-01
  -1.380  0.566E-01  0.566E-01
  -1.370  0.567E-01  0.567E-01
  -1.360  0.567E-01  0.567E-01
  -1.350  0.567E-01  0.567E-01
  -1.340  0.567E-01  0.567E-01
  -1.330  0.567E-01  0.567E-01
  -1.320  0.568E-01  0.568E-01
  -1.310  0.568E-01  0.568E-01
  -1.300  0.568E-01  0.568E-01
  -1.290  0.568E-01  0.568E-01
  -1.280  0.568E-01  0.568E-01
  -1.270  0.569E-01  0.569E-01
  -1.260  0.569E-01  0.569E-01
  -1.250  0.569E-01  0.569E-01
  -1.240  0.569E-01  0.569E-01
  -1.230  0.570E-01  0.570E-01
  -1.220  0.570E-01  0.570E-01
  -1.210  0.570E-01  0.570E-01
  -1.200  0.571E-01  0.571E-01
  -1.190  0.571E-01  0.571E-01
  -1.180  0.571E-01  0.571E-01
  -1.170  0.572E-01  0.572E-01
  -1.160  0.572E-01  0.572E-01
  -1.150  0.572E-01  0.572E-01
  -1.140  0.573E-01  0.573E-01
  -1.130  0.573E-01  0.573E-01
  -1.120  0.573E-01  0.573E-01
  -1.110  0.574E-01  0.574E-01
  -1.100  0.574E-01  0.574E-01
  -1.090  0.574E-01  0.574E-01
  -1.080  0.575E-01  0.575E-01
  -1.070  0.575E-01  0.575E-01
  -1.060  0.575E-01  0.575E-01
  -1.050  0.576E-01  0.576E-01
  -1.040  0.576E-01  0.576E-01
  -1.030  0.577E-01  0.577E-01
  -1.020  0.577E-01  0.577E-01
  -1.010  0.577E-01  0.577E-01
  -1.000  0.578E-01  0.578E-01
  -0.990  0.578E-01  0.578E-01
  -0.980  0.579E-01  0.579E-01
  -0.970  0.579E-01  0.579E-01
  -0.960  0.580E-01  0.580E-01
  -0.950  0.580E-01  0.580E-01
  -0.940  0.580E-01  0.580E-01
  -0.930  0.581E-01  0.581E-01
  -0.920  0.581E-01  0.581E-01
  -0.910  0.582E-01  0.582E-01
  -0.900  0.582E-01  0.582E-01
  -0.890  0.583E-01  0.583E-01
  -0.880  0.583E-01  0.583E-01
  -0.870  0.584E-01  0.584E-01
  -0.860  0.584E-01  0.584E-01
  -0.850  0.584E-01  0.584E-01
  -0.840  0.585E-01  0.585E-01
  -0.830  0.585E-01  0.585E-01
  -0.820  0.586E-01  0.586E-01
  -0.810  0.586E-01  0.586E-01
  -0.800  0.587E-01  0.587E-01
  -0.790  0.587E-01  0.587E-01
  -0.780  0.588E-01  0.588E-01
  -0.770  0.588E-01  0.588E-01
  -0.760  0.589E-01  0.589E-01
  -0.750  0.589E-01  0.589E-01
  -0.740  0.590E-01  0.590E-01
  -0.730  0.590E-01  0.590E-01
  -0.720  0.591E-01  0.591E-01
  -0.710  0.591E-01  0.591E-01
  -0.700  0.592E-01  0.592E-01
  -0.690  0.592E-01  0.592E-01
  -0.680  0.593E-01  0.593E-01
  -0.670  0.593E-01  0.593E-01
  -0.660  0.594E-01  0.594E-01
  -0.650  0.594E-01  0.594E-01
  -0.640  0.595E-01  0.595E-01
  -0.630  0.596E-01  0.596E-01
  -0.620  0.596E-01  0.596E-01
  -0.610  0.597E-01  0.597E-01
  -0.600  0.597E-01  0.597E-01
  -0.590  0.598E-01  0.598E-01
  -0.580  0.598E-01  0.598E-01
  -0.570  0.599E-01  0.599E-01
  -0.560  0.599E-01  0.599E-01
  -0.550  0.600E-01  0.600E-01
  -0.540  0.600E-01  0.600E-01
  -0.530  0.601E-01  0.601E-01
  -0.520  0.602E-01  0.602E-01
  -0.510  0.602E-01  0.602E-01
  -0.500  0.603E-01  0.603E-01
  -0.490  0.603E-01  0.603E-01
  -0.480  0.604E-01  0.604E-01
  -0.470  0.604E-01  0.604E-01
  -0.460  0.605E-01  0.605E-01
  -0.450  0.605E-01  0.605E-01
  -0.440  0.606E-01  0.606E-01
  -0.430  0.607E-01  0.607E-01
  -0.420  0.607E-01  0.607E-01
  -0.410  0.608E-01  0.608E-01
  -0.400  0.608E-01  0.608E-01
  -0.390  0.609E-01  0.609E-01
  -0.380  0.610E-01  0.610E-01
  -0.370  0.610E-01  0.610E-01
  -0.360  0.611E-01  0.611E-01
  -0.350  0.611E-01  0.611E-01
  -0.340  0.612E-01  0.612E-01
  -0.330  0.612E-01  0.612E-01
  -0.320  0.613E-01  0.613E-01
  -0.310  0.614E-01  0.614E-01
  -0.300  0.614E-01  0.614E-01
  -0.290  0.615E-01  0.615E-01
  -0.280  0.615E-01  0.615E-01
  -0.270  0.616E-01  0.616E-01
  -0.260  0.617E-01  0.617E-01
  -0.250  0.617E-01  0.617E-01
  -0.240  0.618E-01  0.618E-01
  -0.230  0.618E-01  0.618E-01
  -0.220  0.619E-01  0.619E-01
  -0.210  0.620E-01  0.620E-01
  -0.200  0.620E-01  0.620E-01
  -0.190  0.621E-01  0.621E-01
  -0.180  0.622E-01  0.622E-01
  -0.170  0.622E-01  0.622E-01
  -0.160  0.623E-01  0.623E-01
  -0.150  0.623E-01  0.623E-01
  -0.140  0.624E-01  0.624E-01
  -0.130  0.625E-01  0.625E-01
  -0.120  0.625E-01  0.625E-01
  -0.110  0.626E-01  0.626E-01
  -0.100  0.627E-01  0.627E-01
  -0.090  0.627E-01  0.627E-01
  -0.080  0.628E-01  0.628E-01
  -0.070  0.628E-01  0.628E-01
  -0.060  0.629E-01  0.629E-01
  -0.050  0.630E-01  0.630E-01
  -0.040  0.630E-01  0.630E-01
  -0.030  0.631E-01  0.631E-01
  -0.020  0.632E-01  0.632E-01
  -0.010  0.632E-01  0.632E-01
   0.000  0.633E-01  0.633E-01
   0.010  0.634E-01  0.634E-01
   0.020  0.634E-01  0.634E-01
   0.030  0.635E-01  0.635E-01
   0.040  0.636E-01  0.636E-01
   0.050  0.636E-01  0.636E-01
   0.060  0.637E-01  0.637E-01
   0.070  0.637E-01  0.637E-01
   0.080  0.638E-01  0.638E-01
   0.090  0.639E-01  0.639E-01
   0.100  0.639E-01  0.639E-01
   0.110  0.640E-01  0.640E-01
   0.120  0.641E-01  0.641E-01
   0.130  0.641E-01  0.641E-01
   0.140  0.642E-01  0.642E-01
   0.150  0.643E-01  0.643E-01
   0.160  0.643E-01  0.643E-01
   0.170  0.644E-01  0.644E-01
   0.180  0.645E-01  0.645E-01
   0.190  0.646E-01  0.646E-01
   0.200  0.646E-01  0.646E-01
   0.210  0.647E-01  0.647E-01
   0.220  0.648E-01  0.648E-01
   0.230  0.648E-01  0.648E-01
   0.240  0.649E-01  0.649E-01
   0.250  0.650E-01  0.650E-01
   0.260  0.650E-01  0.650E-01
   0.270  0.651E-01  0.651E-01
   0.280  0.652E-01  0.652E-01
   0.290  0.652E-01  0.652E-01
   0.300  0.653E-01  0.653E-01
   0.310  0.654E-01  0.654E-01
   0.320  0.654E-01  0.654E-01
   0.330  0.655E-01  0.655E-01
   0.340  0.656E-01  0.656E-01
   0.350  0.657E-01  0.657E-01
   0.360  0.657E-01  0.657E-01
   0.370  0.658E-01  0.658E-01
   0.380  0.659E-01  0.659E-01
   0.390  0.659E-01  0.659E-01
   0.400  0.660E-01  0.660E-01
   0.410  0.661E-01  0.661E-01
   0.420  0.661E-01  0.661E-01
   0.430  0.662E-01  0.662E-01
   0.440  0.663E-01  0.663E-01
   0.450  0.664E-01  0.664E-01
   0.460  0.664E-01  0.664E-01
   0.470  0.665E-01  0.665E-01
   0.480  0.666E-01  0.666E-01
   0.490  0.666E-01  0.666E-01
   0.500  0.667E-01  0.667E-01
   0.510  0.668E-01  0.668E-01
   0.520  0.669E-01  0.669E-01
   0.530  0.669E-01  0.669E-01
   0.540  0.670E-01  0.670E-01
   0.550  0.671E-01  0.671E-01
   0.560  0.671E-01  0.671E-01
   0.570  0.672E-01  0.672E-01
   0.580  0.673E-01  0.673E-01
   0.590  0.674E-01  0.674E-01
   0.600  0.674E-01  0.674E-01
   0.610  0.675E-01  0.675E-01
   0.620  0.676E-01  0.676E-01
   0.630  0.677E-01  0.677E-01
   0.640  0.677E-01  0.677E-01
   0.650  0.678E-01  0.678E-01
   0.660  0.679E-01  0.679E-01
   0.670  0.679E-01  0.679E-01
   0.680  0.680E-01  0.680E-01
   0.690  0.681E-01  0.681E-01
   0.700  0.682E-01  0.682E-01
   0.710  0.682E-01  0.682E-01
   0.720  0.683E-01  0.683E-01
   0.730  0.684E-01  0.684E-01
   0.740  0.685E-01  0.685E-01
   0.750  0.685E-01  0.685E-01
   0.760  0.686E-01  0.686E-01
   0.770  0.687E-01  0.687E-01
   0.780  0.687E-01  0.687E-01
   0.790  0.688E-01  0.688E-01
   0.800  0.689E-01  0.689E-01
   0.810  0.690E-01  0.690E-01
   0.820  0.690E-01  0.690E-01
   0.830  0.691E-01  0.691E-01
   0.840  0.692E-01  0.692E-01
   0.850  0.693E-01  0.693E-01
   0.860  0.693E-01  0.693E-01
   0.870  0.694E-01  0.694E-01
   0.880  0.695E-01  0.695E-01
   0.890  0.696E-01  0.696E-01
   0.900  0.696E-01  0.696E-01
   0.910  0.697E-01  0.697E-01
   0.920  0.698E-01  0.698E-01
   0.930  0.699E-01  0.699E-01
   0.940  0.699E-01  0.699E-01
   0.950  0.700E-01  0.700E-01
   0.960  0.701E-01  0.701E-01
   0.970  0.702E-01  0.702E-01
   0.980  0.702E-01  0.702E-01
   0.990  0.703E-01  0.703E-01
   1.000  0.704E-01  0.704E-01
   1.010  0.705E-01  0.705E-01
   1.020  0.706E-01  0.706E-01
   1.030  0.706E-01  0.706E-01
   1.040  0.707E-01  0.707E-01
   1.050  0.708E-01  0.708E-01
   1.060  0.709E-01  0.709E-01
   1.070  0.709E-01  0.709E-01
   1.080  0.710E-01  0.710E-01
   1.090  0.711E-01  0.711E-01
   1.100  0.712E-01  0.712E-01
   1.110  0.712E-01  0.712E-01
   1.120  0.713E-01  0.713E-01
   1.130  0.714E-01  0.714E-01
   1.140  0.715E-01  0.715E-01
   1.150  0.715E-01  0.715E-01
   1.160  0.716E-01  0.716E-01
   1.170  0.717E-01  0.717E-01
   1.180  0.718E-01  0.718E-01
   1.190  0.719E-01  0.719E-01
   1.200  0.719E-01  0.719E-01
   1.210  0.720E-01  0.720E-01
   1.220  0.721E-01  0.721E-01
   1.230  0.722E-01  0.722E-01
   1.240  0.722E-01  0.722E-01
   1.250  0.723E-01  0.723E-01
   1.260  0.724E-01  0.724E-01
   1.270  0.725E-01  0.725E-01
   1.280  0.726E-01  0.726E-01
